#   1 NUMBER                 Running object number                                     
#   2 XMODEL_IMAGE           X coordinate from model-fitting                            [pixel]
#   3 YMODEL_IMAGE           Y coordinate from model-fitting                            [pixel]
#   4 ALPHAMODEL_J2000       Fitted position along right ascension (J2000)              [deg]
#   5 DELTAMODEL_J2000       Fitted position along declination (J2000)                  [deg]
#   6 MAG_AUTO               Kron-like elliptical aperture magnitude                    [mag]
#   7 MAG_SPHEROID           Spheroid total magnitude from fitting                      [mag]
#   8 FLUX_SPHEROID          Spheroid total flux from fitting                           [count]
#   9 SPHEROID_SERSICN       Spheroid Sersic index from fitting                        
#  10 SPHEROID_SERSICNERR    RMS error on fitted spheroid Sersic index                 
#  11 ELLIP1MODEL_IMAGE      Ellipticity component from model-fitting                  
#  12 ELLIP2MODEL_IMAGE      Ellipticity component from model-fitting                  
#  13 SPREAD_MODEL           Spread parameter from model-fitting                       
#  14 SPREADERR_MODEL        Spread parameter error from model-fitting                 
#  15 SPHEROID_REFF_IMAGE    Spheroid effective radius from fitting                     [pixel]
#  16 X_IMAGE                Object position along x                                    [pixel]
#  17 Y_IMAGE                Object position along y                                    [pixel]
         1     99.3237     65.7767 254.5726988 +10.8690828  12.7256  12.6121     1429.435  9.773  0.086  -0.146793  -0.112279   0.0023624  4.8339e-05     0.4074     98.9649     66.0080
         2     86.9523     41.2382 254.5774877 +10.8596993  14.3060  13.7383     506.6206  7.996  0.365  -0.183124   0.154060   0.0082484  0.00026989     6.9898     86.9973     41.1171
         3     28.7132     57.9140 254.6001553 +10.8660155  13.1272  12.9865     1012.475  8.378  0.250  -0.034826   0.371895   0.0020977  6.5582e-05     0.2694     28.3232     57.7797
         4      7.1910     28.4372 254.6084976 +10.8547369  14.1298  13.9283     425.2779  8.778  0.534  -0.183348   0.236744   0.0025494  0.00016585     0.4482      7.2888     29.0223
         5     99.7020     22.4256 254.5725114 +10.8525253  15.9248  15.5982     91.34904  9.418  0.389  -0.538766   0.095939   0.0018989  0.00078589     0.9162     99.7905     22.2471
         6     93.7457     20.3267 254.5748260 +10.8517183  15.7041  15.5112     98.97186  3.833  1.822  -0.044691  -0.316720   0.0063868  0.00073724     1.5110     93.7837     19.9342
         7     37.4457      2.0507 254.5967052 +10.8446867  15.7736  14.4068     273.7076  5.615  0.462  -0.176068   0.554922   0.0081878  0.00090557    21.7486     38.7948      4.2578
         8     28.7388     22.2117 254.6001109 +10.8523791  15.3930  15.2125     130.3157  9.977  0.292   0.129938  -0.186492  0.00076921  0.00047958     0.0491     28.6764     22.1739
         9     36.6639     15.5878 254.5970222 +10.8498565  16.2824  14.5389     242.3422  4.833  0.466  -0.007589  -0.752911   0.0074697   0.0016527    51.4618     36.7926     15.9554
        10     58.3310      8.6793 254.5885887 +10.8472376  17.4833  15.4869     101.2171  6.361  1.544  -0.002848   0.523826   0.0041024   0.0031658    36.5550     58.1442      9.2325
        11    108.4134      7.0359 254.5691090 +10.8466550  18.3580  17.8362     11.62838  4.051 31.005  -0.002963   0.000755   -0.035696   0.0068419     0.0247    108.8783      7.1296
        12    126.9728      4.4163 254.5618885 +10.8456708  17.7056  17.3266     18.59413  2.552  5.210   0.310884  -0.056150   0.0038353    0.003097     0.6069    125.5067      5.0052
        13    128.3038      4.1560 254.5613706 +10.8455725  19.4747  17.1761     21.35894  3.987  6.662   0.101699   0.575269    0.011017   0.0038955     1.6944    131.6610      1.2987
        14     86.0845     97.8465 254.5778783 +10.8813199  17.5348  17.0845     23.23901  9.779  5.246   0.003814   0.342426   -0.012169   0.0027011     0.0317     86.1210     98.0811
        15     67.7414    129.7040 254.5850433 +10.8934713  16.3551  15.1689     135.6522  9.977  0.124  -0.349945   0.722823  0.00059805  0.00098125    10.9915     67.6206    128.9335
        16     47.1134    121.6979 254.5930596 +10.8903946  17.7032  15.2048     131.2421  1.421  0.299  -0.164138  -0.767686   0.0063752   0.0034462    28.5817     39.2910    130.9907
        17     27.7807    125.1470 254.6005830 +10.8916941  13.6733  13.4999     631.0273  9.918  0.122   0.150609   0.310371  0.00093152  9.8269e-05     0.0495     27.7698    125.1703
        18      3.2299    132.9715 254.6101405 +10.8946598  18.3181  16.9596     26.07183  0.834  4.497   0.000016  -0.000035  -0.0040813   0.0036512     0.0468      3.0529    131.4022
        19     67.1338     77.1767 254.5852299 +10.8734080  15.5538  14.5334     243.5684  7.730  0.508   0.065124  -0.374350    0.009069  0.00080905    16.6986     67.2760     77.5487
        20     50.0581     95.1208 254.5918887 +10.8802462  17.0727  14.5222      246.098  9.672  1.697  -0.415816   0.115169   0.0063801   0.0018587    93.9588     50.1181     96.0000
        21     52.4842     85.1939 254.5909356 +10.8764568  14.8250  14.1454     348.2147  7.691  0.196  -0.221710   0.258704   0.0085758  0.00041394     8.3747     51.8185     84.4524
        22     57.3265     74.0760 254.5890415 +10.8722148  16.3924  14.6922     210.4397  9.922  0.075   0.609116   0.220018   0.0066847   0.0010942    29.5501     56.7298     73.6794
        23     76.9555     91.1172 254.5814228 +10.8787415  16.7396  15.2631     124.3845  9.990  0.159   0.019043  -0.816758   0.0017964   0.0018877    39.2133     77.5616     91.0993
        24    127.5280     84.6450 254.5617460 +10.8763144  17.0027  16.8968     27.62275  9.828  5.240  -0.007125  -0.049715   0.0040518   0.0020931     0.0115    127.5621     84.6468
        25      7.4068     80.6565 254.6084646 +10.8746821  16.3600  16.1263     56.16611  7.042  4.542   0.344471  -0.778496   0.0017697   0.0011381     0.2001      7.4864     80.7304
        26     83.9729     69.2105 254.5786727 +10.8703806  16.0227  13.5622     595.8348  1.428  0.114  -0.023950  -0.574595   0.0097353   0.0015265    63.3484     79.7505     71.5151
        27     79.2983     51.5381 254.5804743 +10.8636264  16.1291  14.0602      376.647  5.668  0.421  -0.232404   0.032406   0.0090755   0.0010141    36.5971     78.8083     52.0150
        28     98.3187     51.7248 254.5730766 +10.8637148  16.2344  13.7480     502.1294  3.710  0.264   0.248594   0.234412   0.0091443   0.0011295    44.4518     99.5256     51.6484
        29     76.1102    116.0084 254.5817751 +10.8882478  17.4190  14.8149     187.9465  9.682  2.442  -0.499108   0.126797    0.010818   0.0029294   111.4531     76.2974    112.9886
        30     90.6970     52.3367 254.5760416 +10.8639417  17.7431  15.2435      126.649  4.410  1.572  -0.554892  -0.522571   0.0029994  0.00041276     5.0338     90.5111     52.5000
        31     90.7093    122.8704 254.5761028 +10.8908819  13.8808  13.7445     503.7109  9.749  0.411  -0.011321  -0.068532   0.0010326  0.00012123     0.0572     90.6954    122.7878
        32    117.4554     69.5099 254.5656499 +10.8705248  17.5361  16.1864     53.14172  9.277  5.208   0.417251  -0.850914   -0.012672   0.0026671    17.6760    118.3548     69.4828
        33     45.3783     77.2796 254.5936920 +10.8734275  17.7251  15.1654     136.0978  9.969  0.183  -0.900678   0.367366    0.019455   0.0061888   103.6477     44.6296     67.5539
        34     77.6249    121.6987 254.5811912 +10.8904226  16.1551  13.9245     426.7651  4.903  0.320  -0.028335   0.243744    0.011392   0.0016398    67.9264     77.4880    122.2205
        35     40.5599     51.3104 254.5955412 +10.8635042  16.5603  15.2275     128.5228  8.112  0.292   0.739903  -0.602738   0.0096524   0.0016084    27.2004     41.4508     51.6228
        36     10.0679     56.4018 254.6074059 +10.8654206  15.5483  14.9019     173.4718  8.574  1.153  -0.075331  -0.380998   0.0061723  0.00084878     9.2578      9.9003     56.7056
        37     75.9763     69.9871 254.5817838 +10.8706700  18.2654  15.3756     112.1422  9.228  1.402  -0.402175  -0.234392    0.011326   0.0042044    88.3252     73.4862     61.5007
        38    101.7944     43.5057 254.5717171 +10.8605786  17.5249  15.0250     154.8816  0.300  0.013   0.488427   0.512595    0.029363   0.0052171    44.3444    114.4072     57.1979
        39    132.4675     54.8531 254.5597975 +10.8649398  17.8686  15.4450     105.1983  1.374  0.419   0.696333   0.651311   0.0024651   0.0038889    64.0597    131.6908     54.5155
        40    114.2694     45.5966 254.5668670 +10.8613883  15.3646  14.1641     342.2644  9.702  0.561   0.187353   0.169032   0.0052433  0.00083168    38.1209    114.6107     45.6091
        41     95.0103     49.5972 254.5743614 +10.8628992  16.6157  14.1157     357.8771  0.300  0.000  -0.035926   0.040240   -0.022294   0.0045668    18.3401    107.1308     40.8780
        42    102.2651     40.1504 254.5715309 +10.8592975  15.8688  13.7290     510.9761  3.499  0.220   0.385399   0.319924   0.0099372   0.0014037    62.7989    101.6840     39.7092
        43    -11.9013     40.9327 254.6159355 +10.8594916  18.4975  15.5692     93.82301  0.300  0.000   0.796853   0.131784   0.0046413   0.0054248    52.4216      1.3272     48.0085
        44    136.3806     47.1043 254.5582685 +10.8619836  16.8496  14.8897     175.4341  0.472  0.665  -0.322546   0.483474  0.00045782   0.0024285     7.5784    131.5783     42.2853
        45    134.3515     37.6753 254.5590491 +10.8583805  17.2068  15.4391     105.7688  9.774  0.270   0.836015  -0.008412   0.0026851    0.001921     4.4394    131.1942     37.3875
        46     68.3389     38.8222 254.5847249 +10.8587597  16.1274  14.6406     220.6701  9.711  0.679   0.873004  -0.316754   0.0041466   0.0010504    47.2360     67.5564     39.1633
        47     73.8050     30.6447 254.5825912 +10.8556413  15.7147  14.2107     327.8802  9.779  0.503   0.194308   0.323673   0.0085505  0.00099437    50.1996     73.6091     30.4517
        48     46.2710    123.5712 254.5933891 +10.8911093  15.8271  14.5551     238.7555  6.414  0.383  -0.179772  -0.922542   0.0065696   0.0013512    59.0466     46.3882    123.8130
        49     58.4199    120.5812 254.5886605 +10.8899784  16.4461  14.1885     334.6585  9.774  0.677  -0.172785   0.396751    0.005144   0.0018939   136.0515     58.7376    120.9412
        50    117.3717    112.1963 254.5657218 +10.8868286  15.5263  15.3896     110.7052  7.840  1.009  -0.465014  -0.228670   0.0056502  0.00070365     1.3567    117.8914    112.8043
        51     55.2988     24.2140 254.5897828 +10.8531683  17.0777  15.3610     113.6602  9.994  0.021   0.111102   0.550343   5.896e-05   0.0020743    32.0824     55.3140     24.1698
        52     49.1582    119.6082 254.5922622 +10.8895983  16.9528  14.4611     260.3416  1.426  0.209  -0.229289  -0.730916    0.015551   0.0030099    59.9080     51.0127    116.4916
        53     18.3040    111.1448 254.6042556 +10.8863372  17.9843  17.5333     15.37062  4.642  7.628   0.605916   0.278168   -0.010992   0.0043828     0.5016     18.1057    111.6689
        54     37.2507    101.3786 254.5968764 +10.8826246  13.1993  13.0495     955.4503  9.796  0.311  -0.083162   0.078312   0.0016524  6.6855e-05     0.1034     37.1613    101.4478
        55    103.3411     40.3394 254.5711126 +10.8593706  17.8732  15.0475     151.7092  9.998  0.095   0.373037   0.589618    0.014738    0.003728    20.7735    111.1103     27.6577
        56     56.9590    108.3899 254.5892172 +10.8853206  18.1058  15.1133      142.782 10.000  0.000  -0.121992  -0.851828    0.021408   0.0038306   118.1819     59.0044    105.7015
        57     -0.6617    103.6054 254.6116254 +10.8834398  19.1045  17.1761     21.35849  2.112 15.435  -0.000005  -0.000000   0.0047747   0.0060013     0.0134      1.0000    101.4960
        58    143.2723     90.9197 254.5556279 +10.8787248  18.3991  15.6445     87.54185  9.180  7.014   0.414593   0.340042  -0.0029686   0.0034204    37.9124    131.8143     97.4745
